Time [min]   Reflectance_590  PulseNumber 
2.00000      8798.00000       1.0         
4.00000      8796.00000       2.0         
6.00000      8605.00000       3.0         
8.00000      8412.00000       4.0         
10.00000     8116.00000       5.0         
12.00000     7678.00000       6.0         
14.00000     6839.00000       7.0         
16.00000     6422.00000       8.0         
18.00000     6450.00000       9.0         
20.00000     6664.00000       10.0        
22.00000     6974.00000       11.0        
24.00000     7317.00000       12.0        
26.00000     7654.00000       13.0        
28.00000     8018.00000       14.0        
30.00000     8274.00000       15.0        
32.00000     8346.00000       16.0        
34.00000     8282.00000       17.0        
36.00000     8072.00000       18.0        
38.00000     7673.00000       19.0        
40.00000     7136.00000       20.0        
42.00000     6466.00000       21.0        
44.00000     6135.00000       22.0        
46.00000     6298.00000       23.0        
48.00000     6590.00000       24.0        
50.00000     6956.00000       25.0        
52.00000     7342.00000       26.0        
54.00000     7749.00000       27.0        
56.00000     8137.00000       28.0        
58.00000     8420.00000       29.0        
60.00000     8520.00000       30.0        
62.00000     8474.00000       31.0        
64.00000     8256.00000       32.0        
66.00000     7873.00000       33.0        
68.00000     7323.00000       34.0        
70.00000     6642.00000       35.0        
72.00000     6264.00000       36.0        
74.00000     6442.00000       37.0        
76.00000     6720.00000       38.0        
78.00000     7110.00000       39.0        
80.00000     7516.00000       40.0        
82.00000     7874.00000       41.0        
84.00000     8266.00000       42.0        
86.00000     8558.00000       43.0        
88.00000     8651.00000       44.0        
90.00000     8600.00000       45.0        
92.00000     8428.00000       46.0        
94.00000     8008.00000       47.0        
96.00000     7454.00000       48.0        
98.00000     6797.00000       49.0        
100.00000    6316.00000       50.0        
102.00000    6532.00000       51.0        
104.00000    6818.00000       52.0        
106.00000    7209.00000       53.0        
108.00000    7584.00000       54.0        
110.00000    7994.00000       55.0        
112.00000    8361.00000       56.0        
114.00000    8669.00000       57.0        
116.00000    8775.00000       58.0        
118.00000    8709.00000       59.0        
120.00000    8496.00000       60.0        
122.00000    8125.00000       61.0        
124.00000    7573.00000       62.0        
126.00000    6905.00000       63.0        
128.00000    6373.00000       64.0        
130.00000    6590.00000       65.0        
132.00000    6848.00000       66.0        
134.00000    7234.00000       67.0        
136.00000    7626.00000       68.0        
138.00000    7948.00000       69.0        
140.00000    8143.00000       70.0        
142.00000    8282.00000       71.0        
144.00000    8440.00000       72.0        
146.00000    8564.00000       73.0        
148.00000    8650.00000       74.0        
150.00000    8757.00000       75.0        
152.00000    8826.00000       76.0        
154.00000    8912.00000       77.0        
156.00000    8966.00000       78.0        
158.00000    9044.00000       79.0        
160.00000    9109.00000       80.0        
162.00000    9153.00000       81.0        
164.00000    9198.00000       82.0        
166.00000    9268.00000       83.0        
168.00000    9297.00000       84.0        
170.00000    9312.00000       85.0        
172.00000    9366.00000       86.0        
